ENVI
description = {
  Resampled Spectral Library [Tue Dec 03 15:57:55 2024]}
samples = 326
lines   = 13
bands   = 1
header offset = 0
file type = ENVI Spectral Library
data type = 4
interleave = bsq
sensor type = Unknown
byte order = 0
wavelength units = Nanometers
reflectance scale factor = 1.000000
band names = {
 Resampled (Spectral Library:speclib.sli)}
spectra names = {
 ACSA3C, AEFL, CACA38, DIVI5, FAGR, FRAMCO, JUNI, LIST2, LITU, QUAL, QUNI, 
 QURU, QUSH}
wavelength = {
      0.000000, 100195.000000, 400049.000000, 401901.000000, 403753.000000,
 405605.000000, 407457.000000, 409309.000000, 411161.000000, 413013.000000,
 414865.000000, 416717.000000, 418569.000000, 420421.000000, 422273.000000,
 424125.000000, 425977.000000, 427829.000000, 429681.000000, 431533.000000,
 433385.000000, 435237.000000, 437089.000000, 438941.000000, 440793.000000,
 442645.000000, 444497.000000, 446349.000000, 448201.000000, 450053.000000,
 451905.000000, 453757.000000, 455609.000000, 457461.000000, 459313.000000,
 461165.000000, 463017.000000, 464869.000000, 466721.000000, 468573.000000,
 470425.000000, 472277.000000, 474129.000000, 475981.000000, 477833.000000,
 479685.000000, 481537.000000, 483389.000000, 485241.000000, 487093.000000,
 488945.000000, 490797.000000, 492649.000000, 494501.000000, 496353.000000,
 498205.000000, 500057.000000, 501909.000000, 503761.000000, 505613.000000,
 507465.000000, 509317.000000, 511169.000000, 513021.000000, 514873.000000,
 516725.000000, 518577.000000, 520429.000000, 522281.000000, 524133.000000,
 525985.000000, 527837.000000, 529689.000000, 531541.000000, 533393.000000,
 535245.000000, 537097.000000, 538949.000000, 540801.000000, 542653.000000,
 544505.000000, 546357.000000, 548209.000000, 550061.000000, 551913.000000,
 553765.000000, 555617.000000, 557469.000000, 559321.000000, 561173.000000,
 563025.000000, 564877.000000, 566729.000000, 568581.000000, 570433.000000,
 572285.000000, 574137.000000, 575989.000000, 577841.000000, 579693.000000,
 581545.000000, 583397.000000, 585249.000000, 587101.000000, 588953.000000,
 590805.000000, 592657.000000, 594509.000000, 596361.000000, 598213.000000,
 600065.000000, 601917.000000, 603769.000000, 605621.000000, 607473.000000,
 609325.000000, 611177.000000, 613029.000000, 614881.000000, 616733.000000,
 618585.000000, 620437.000000, 622289.000000, 624141.000000, 625993.000000,
 627845.000000, 629697.000000, 631549.000000, 633401.000000, 635253.000000,
 637105.000000, 638957.000000, 640809.000000, 642661.000000, 644513.000000,
 646365.000000, 648217.000000, 650069.000000, 651921.000000, 653773.000000,
 655625.000000, 657477.000000, 659329.000000, 661181.000000, 663033.000000,
 664885.000000, 666737.000000, 668589.000000, 670441.000000, 672293.000000,
 674145.000000, 675997.000000, 677849.000000, 679701.000000, 681553.000000,
 683405.000000, 685257.000000, 687109.000000, 688961.000000, 690813.000000,
 692665.000000, 694517.000000, 696369.000000, 698221.000000, 700073.000000,
 701925.000000, 703777.000000, 705629.000000, 707481.000000, 709333.000000,
 711185.000000, 713037.000000, 714889.000000, 716741.000000, 718593.000000,
 720445.000000, 722297.000000, 724149.000000, 726001.000000, 727853.000000,
 729705.000000, 731557.000000, 733409.000000, 735261.000000, 737113.000000,
 738965.000000, 740817.000000, 742669.000000, 744521.000000, 746373.000000,
 748225.000000, 750077.000000, 751929.000000, 753781.000000, 755633.000000,
 757485.000000, 759337.000000, 761189.000000, 763041.000000, 764893.000000,
 766745.000000, 768597.000000, 770449.000000, 772301.000000, 774153.000000,
 776005.000000, 777857.000000, 779709.000000, 781561.000000, 783413.000000,
 785265.000000, 787117.000000, 788969.000000, 790821.000000, 792673.000000,
 794525.000000, 796377.000000, 798229.000000, 800081.000000, 801933.000000,
 803785.000000, 805637.000000, 807489.000000, 809341.000000, 811193.000000,
 813045.000000, 814897.000000, 816749.000000, 818601.000000, 820453.000000,
 822305.000000, 824157.000000, 826009.000000, 827861.000000, 829713.000000,
 831565.000000, 833417.000000, 835269.000000, 837121.000000, 838973.000000,
 840825.000000, 842677.000000, 844529.000000, 846381.000000, 848233.000000,
 850085.000000, 851937.000000, 853789.000000, 855641.000000, 857493.000000,
 859345.000000, 861197.000000, 863049.000000, 864901.000000, 866753.000000,
 868605.000000, 870457.000000, 872309.000000, 874161.000000, 876013.000000,
 877865.000000, 879717.000000, 881569.000000, 883421.000000, 885273.000000,
 887125.000000, 888977.000000, 890829.000000, 892681.000000, 894533.000000,
 896385.000000, 898237.000000, 900089.000000, 901941.000000, 903793.000000,
 905645.000000, 907497.000000, 909349.000000, 911201.000000, 913053.000000,
 914905.000000, 916757.000000, 918609.000000, 920461.000000, 922313.000000,
 924165.000000, 926017.000000, 927869.000000, 929721.000000, 931573.000000,
 933425.000000, 935277.000000, 937129.000000, 938981.000000, 940833.000000,
 942685.000000, 944537.000000, 946389.000000, 948241.000000, 950093.000000,
 951945.000000, 953797.000000, 955649.000000, 957501.000000, 959353.000000,
 961205.000000, 963057.000000, 964909.000000, 966761.000000, 968613.000000,
 970465.000000, 972317.000000, 974169.000000, 976021.000000, 977873.000000,
 979725.000000, 981577.000000, 983429.000000, 985281.000000, 987133.000000,
 988985.000000, 990837.000000, 992689.000000, 994541.000000, 996393.000000,
 998245.000000}
